Wavelength (nm),Power (W/m2/nm)
339.619,0
340,0
340.381,0
340.762,0
341.143,0
341.524,0
341.904,0
342.285,0
342.666,0
343.046,0
343.427,0
343.807,0
344.188,0
344.568,0
344.949,0
345.329,-0.0075
345.71,-0.0218
346.09,-0.0045
346.47,0.0285
346.85,0.0067
347.23,0.0052
347.611,0.0058
347.991,0.005
348.371,0.0021
348.751,0.0021
349.131,0.0021
349.511,0.0017
349.891,0.0017
350.27,0.0019
350.65,0.0012
351.03,0.0011
351.41,0.0015
351.79,0.0015
352.169,0.0019
352.549,0.0015
352.928,0.0017
353.308,0.0015
353.687,0.0014
354.067,0.0011
354.446,0.0023
354.826,0.0027
355.205,0.0018
355.584,0.0022
355.964,0.0018
356.343,0.0019
356.722,0.0013
357.101,0.0013
357.48,0.0014
357.859,0.0013
358.238,0.0009
358.617,0.0013
358.996,0.0023
359.375,0.0018
359.754,0.0022
360.133,0.0013
360.512,0.0011
360.891,0.0007
361.269,0.0007
361.648,0.0003
362.027,0.0008
362.405,0.0009
362.784,0.0008
363.162,0.0009
363.541,0.0007
363.919,0.0008
364.298,0.0009
364.676,0.0004
365.054,0.0005
365.433,0.0007
365.811,0.001
366.189,0.0006
366.567,0.0012
366.945,0.0013
367.323,0.0018
367.701,0.0011
368.079,0.0015
368.457,0.0008
368.835,0.0004
369.213,0
369.591,0.0005
369.969,0.0003
370.346,0.0005
370.724,0.0008
371.102,0.0006
371.479,0.0003
371.857,0.0007
372.235,0.0009
372.612,0.0007
372.99,0.001
373.367,0.0016
373.744,0.001
374.122,0.001
374.499,0.0005
374.876,0.0007
375.254,-0.0001
375.631,0.0003
376.008,0.0002
376.385,0.0007
376.762,0.0009
377.139,0.0013
377.516,0.0015
377.893,0.0015
378.27,0.0022
378.647,0.002
379.024,0.002
379.4,0.0018
379.777,0.0024
380.154,0.002
380.53,0.0019
380.907,0.0018
381.284,0.0014
381.66,0.0014
382.037,0.0009
382.413,0.001
382.79,0.0009
383.166,0.0014
383.542,0.0011
383.919,0.0014
384.295,0.0011
384.671,0.0013
385.047,0.0005
385.423,0.0004
385.799,0.0001
386.176,0.0005
386.552,0.0003
386.928,0.0012
387.303,0.0015
387.679,0.0017
388.055,0.0015
388.431,0.0013
388.807,0.0009
389.183,0.0007
389.558,0.0009
389.934,0.001
390.309,0.0012
390.685,0.0011
391.061,0.0016
391.436,0.0013
391.811,0.001
392.187,0.0008
392.562,0.0007
392.938,0.0003
393.313,0.0002
393.688,0.0002
394.063,0.0004
394.438,0.0003
394.814,0.0004
395.189,0.0004
395.564,0.0003
395.939,0
396.314,0.0001
396.689,0.0003
397.063,0.0002
397.438,0.0005
397.813,0.0005
398.188,0.0007
398.563,0.0004
398.937,0.0004
399.312,0.0008
399.686,0.0011
400.061,0.0008
400.435,0.001
400.81,0.0009
401.184,0.0006
401.559,0.0003
401.933,0.0007
402.307,0.0006
402.682,0.0006
403.056,0.0007
403.43,0.0006
403.804,0.0002
404.178,0.0002
404.552,0.0003
404.926,0.0005
405.3,0.0004
405.674,0.0008
406.048,0.001
406.422,0.0008
406.796,0.0008
407.169,0.0009
407.543,0.0008
407.917,0.0007
408.291,0.0007
408.664,0.0005
409.038,0.0005
409.411,0.0003
409.785,0.0001
410.158,0.0001
410.531,0.0001
410.905,0
411.278,0
411.651,0
412.025,0.0002
412.398,0.0002
412.771,0.0004
413.144,0.001
413.517,0.0013
413.89,0.0012
414.263,0.0014
414.636,0.0013
415.009,0.0008
415.382,0.0008
415.755,0.0009
416.127,0.0008
416.5,0.0009
416.873,0.0009
417.245,0.0008
417.618,0.0007
417.991,0.0009
418.363,0.0008
418.736,0.0008
419.108,0.0006
419.48,0.0007
419.853,0.0005
420.225,0.0007
420.597,0.0008
420.97,0.0009
421.342,0.001
421.714,0.0009
422.086,0.0007
422.458,0.0007
422.83,0.0008
423.202,0.0008
423.574,0.001
423.946,0.001
424.318,0.0008
424.69,0.0006
425.061,0.0007
425.433,0.0005
425.805,0.0005
426.177,0.0004
426.548,0.0007
426.92,0.0007
427.291,0.0008
427.663,0.0009
428.034,0.0012
428.406,0.0012
428.777,0.0012
429.148,0.0014
429.519,0.0013
429.891,0.0013
430.262,0.0013
430.633,0.0014
431.004,0.0015
431.375,0.0017
431.746,0.0018
432.117,0.0019
432.488,0.002
432.859,0.002
433.23,0.0021
433.601,0.0023
433.971,0.0024
434.342,0.0024
434.713,0.0024
435.083,0.0027
435.454,0.0028
435.825,0.0029
436.195,0.003
436.566,0.0032
436.936,0.0033
437.306,0.0033
437.677,0.0035
438.047,0.0037
438.417,0.0038
438.788,0.0041
439.158,0.0044
439.528,0.0047
439.898,0.0049
440.268,0.0052
440.638,0.0053
441.008,0.0055
441.378,0.0057
441.748,0.0061
442.118,0.0064
442.487,0.0069
442.857,0.0075
443.227,0.008
443.597,0.0082
443.966,0.0086
444.336,0.009
444.705,0.0097
445.075,0.0099
445.444,0.0104
445.814,0.0111
446.183,0.0115
446.552,0.0116
446.922,0.0124
447.291,0.0131
447.66,0.0137
448.029,0.0145
448.398,0.0155
448.768,0.0164
449.137,0.0172
449.506,0.0179
449.875,0.0187
450.243,0.0194
450.612,0.0205
450.981,0.0215
451.35,0.0228
451.719,0.0239
452.087,0.0253
452.456,0.0264
452.825,0.028
453.193,0.0295
453.562,0.0312
453.93,0.033
454.299,0.035
454.667,0.0368
455.035,0.0388
455.404,0.0409
455.772,0.0432
456.14,0.0453
456.508,0.0473
456.877,0.0495
457.245,0.0519
457.613,0.0543
457.981,0.0565
458.349,0.0592
458.717,0.0615
459.085,0.0636
459.452,0.0655
459.82,0.0679
460.188,0.0697
460.556,0.0713
460.923,0.0728
461.291,0.0741
461.659,0.0748
462.026,0.0752
462.394,0.0761
462.761,0.0761
463.128,0.0758
463.496,0.0756
463.863,0.075
464.23,0.0738
464.598,0.0728
464.965,0.0713
465.332,0.0687
465.699,0.0668
466.066,0.0649
466.433,0.0627
466.8,0.0607
467.167,0.0594
467.534,0.0572
467.901,0.055
468.268,0.0524
468.635,0.0499
469.001,0.0475
469.368,0.0454
469.735,0.0433
470.101,0.0416
470.468,0.04
470.834,0.0385
471.201,0.037
471.567,0.0358
471.934,0.0345
472.3,0.0331
472.666,0.032
473.032,0.0306
473.399,0.0295
473.765,0.0288
474.131,0.0282
474.497,0.0273
474.863,0.027
475.229,0.0263
475.595,0.0256
475.961,0.0251
476.327,0.0247
476.693,0.0242
477.058,0.024
477.424,0.0235
477.79,0.0231
478.156,0.0226
478.521,0.0222
478.887,0.0215
479.252,0.0211
479.618,0.0205
479.983,0.0199
480.348,0.0193
480.714,0.0189
481.079,0.0182
481.444,0.0177
481.81,0.0174
482.175,0.017
482.54,0.0163
482.905,0.0158
483.27,0.0152
483.635,0.0146
484,0.0141
484.365,0.0136
484.73,0.0132
485.095,0.0128
485.459,0.0124
485.824,0.012
486.189,0.0117
486.553,0.0113
486.918,0.0109
487.283,0.0107
487.647,0.0106
488.012,0.0104
488.376,0.0102
488.74,0.0101
489.105,0.0098
489.469,0.0098
489.833,0.0097
490.198,0.0096
490.562,0.0097
490.926,0.0097
491.29,0.0097
491.654,0.0096
492.018,0.0096
492.382,0.0096
492.746,0.0097
493.11,0.0098
493.474,0.01
493.837,0.0102
494.201,0.0103
494.565,0.0104
494.928,0.0104
495.292,0.0105
495.656,0.0107
496.019,0.011
496.383,0.0113
496.746,0.0117
497.109,0.012
497.473,0.0123
497.836,0.0125
498.199,0.0129
498.563,0.0133
498.926,0.0138
499.289,0.0142
499.652,0.0147
500.015,0.0151
500.378,0.0155
500.741,0.0161
501.104,0.0166
501.467,0.0172
501.829,0.0178
502.192,0.0185
502.555,0.0192
502.918,0.0199
503.28,0.0206
503.643,0.0214
504.005,0.0223
504.368,0.0232
504.73,0.0241
505.093,0.0252
505.455,0.0263
505.817,0.0273
506.18,0.0284
506.542,0.0294
506.904,0.0306
507.266,0.0316
507.628,0.0329
507.991,0.0339
508.353,0.0354
508.715,0.0367
509.076,0.0381
509.438,0.0395
509.8,0.041
510.162,0.0423
510.524,0.0435
510.885,0.0448
511.247,0.0461
511.609,0.0475
511.97,0.0488
512.332,0.0502
512.693,0.0515
513.055,0.0525
513.416,0.0537
513.778,0.0549
514.139,0.0562
514.5,0.0573
514.861,0.0584
515.223,0.0593
515.584,0.06
515.945,0.0608
516.306,0.0614
516.667,0.0621
517.028,0.0628
517.389,0.0631
517.75,0.0633
518.11,0.0635
518.471,0.0639
518.832,0.064
519.193,0.0643
519.553,0.0642
519.914,0.0642
520.274,0.0637
520.635,0.0633
520.995,0.0628
521.356,0.0625
521.716,0.0618
522.076,0.0613
522.437,0.0606
522.797,0.0598
523.157,0.059
523.517,0.0582
523.877,0.0574
524.238,0.0566
524.598,0.0558
524.958,0.0547
525.317,0.0538
525.677,0.0529
526.037,0.0519
526.397,0.0509
526.757,0.0501
527.116,0.0491
527.476,0.048
527.836,0.047
528.195,0.0462
528.555,0.045
528.914,0.0441
529.274,0.0432
529.633,0.0423
529.993,0.0413
530.352,0.0406
530.711,0.0397
531.07,0.0388
531.429,0.0381
531.789,0.0374
532.148,0.0365
532.507,0.0358
532.866,0.0351
533.225,0.0343
533.584,0.0338
533.942,0.0332
534.301,0.0327
534.66,0.032
535.019,0.0316
535.377,0.0309
535.736,0.0305
536.095,0.0299
536.453,0.0295
536.812,0.029
537.17,0.0285
537.528,0.0279
537.887,0.0274
538.245,0.0269
538.603,0.0262
538.962,0.0257
539.32,0.0251
539.678,0.0247
540.036,0.0243
540.394,0.0237
540.752,0.0233
541.11,0.0229
541.468,0.0222
541.826,0.0216
542.184,0.0213
542.541,0.0207
542.899,0.0203
543.257,0.02
543.614,0.0196
543.972,0.019
544.33,0.0185
544.687,0.0179
545.045,0.0174
545.402,0.017
545.759,0.0167
546.117,0.0164
546.474,0.016
546.831,0.0156
547.188,0.0151
547.546,0.0147
547.903,0.0143
548.26,0.014
548.617,0.0136
548.974,0.0132
549.331,0.0128
549.687,0.0124
550.044,0.012
550.401,0.0117
550.758,0.0114
551.114,0.0111
551.471,0.0107
551.828,0.0103
552.184,0.01
552.541,0.0098
552.897,0.0096
553.254,0.0094
553.61,0.0092
553.966,0.0091
554.323,0.0088
554.679,0.0086
555.035,0.0084
555.391,0.0082
555.747,0.008
556.103,0.0078
556.459,0.0076
556.815,0.0073
557.171,0.0072
557.527,0.007
557.883,0.0068
558.239,0.0067
558.594,0.0066
558.95,0.0063
559.306,0.0062
559.661,0.006
560.017,0.0059
560.372,0.0057
560.728,0.0057
561.083,0.0056
561.438,0.0054
561.794,0.0053
562.149,0.0053
562.504,0.0051
562.859,0.0049
563.215,0.0048
563.57,0.0047
563.925,0.0045
564.28,0.0045
564.635,0.0044
564.99,0.0044
565.344,0.0043
565.699,0.0043
566.054,0.0042
566.409,0.0041
566.763,0.0041
567.118,0.0039
567.473,0.0039
567.827,0.0037
568.182,0.0037
568.536,0.0037
568.891,0.0036
569.245,0.0035
569.599,0.0036
569.953,0.0035
570.308,0.0033
570.662,0.0032
571.016,0.0032
571.37,0.0031
571.724,0.003
572.078,0.003
572.432,0.003
572.786,0.0029
573.14,0.0028
573.494,0.0028
573.847,0.0027
574.201,0.0027
574.555,0.0028
574.908,0.0027
575.262,0.0026
575.615,0.0027
575.969,0.0027
576.322,0.0026
576.676,0.0025
577.029,0.0025
577.382,0.0023
577.736,0.0023
578.089,0.0024
578.442,0.0024
578.795,0.0023
579.148,0.0023
579.501,0.0023
579.854,0.0022
580.207,0.0022
580.56,0.0022
580.913,0.0023
581.265,0.0023
581.618,0.0023
581.971,0.0024
582.324,0.0023
582.676,0.0024
583.029,0.0024
583.381,0.0024
583.734,0.0024
584.086,0.0024
584.438,0.0024
584.791,0.0025
585.143,0.0026
585.495,0.0027
585.847,0.0028
586.2,0.0028
586.552,0.0028
586.904,0.0028
587.256,0.0029
587.608,0.0029
587.959,0.0029
588.311,0.003
588.663,0.0032
589.015,0.0033
589.367,0.0034
589.718,0.0036
590.07,0.0037
590.421,0.0038
590.773,0.0039
591.124,0.0039
591.476,0.0039
591.827,0.004
592.179,0.0041
592.53,0.0043
592.881,0.0045
593.232,0.0048
593.584,0.005
593.935,0.0052
594.286,0.0053
594.637,0.0054
594.988,0.0054
595.339,0.0057
595.689,0.0059
596.04,0.0061
596.391,0.0063
596.742,0.0067
597.092,0.0068
597.443,0.0069
597.794,0.0071
598.144,0.0075
598.495,0.0077
598.845,0.0081
599.196,0.0085
599.546,0.0089
599.896,0.0092
600.247,0.0095
600.597,0.0099
600.947,0.0103
601.297,0.0107
601.647,0.0111
601.997,0.0116
602.347,0.0121
602.697,0.0125
603.047,0.0131
603.397,0.0135
603.747,0.014
604.096,0.0144
604.446,0.0149
604.796,0.0153
605.145,0.016
605.495,0.0165
605.844,0.0172
606.194,0.0177
606.543,0.0185
606.893,0.0191
607.242,0.0197
607.591,0.0202
607.94,0.021
608.29,0.0218
608.639,0.0227
608.988,0.0234
609.337,0.0244
609.686,0.0253
610.035,0.0262
610.384,0.0271
610.733,0.0282
611.081,0.0293
611.43,0.0305
611.779,0.0316
612.127,0.0328
612.476,0.0341
612.825,0.0355
613.173,0.0369
613.522,0.0383
613.87,0.0397
614.218,0.0413
614.567,0.0428
614.915,0.0445
615.263,0.0463
615.611,0.0482
615.96,0.0502
616.308,0.0523
616.656,0.0544
617.004,0.057
617.352,0.0595
617.7,0.0621
618.047,0.0649
618.395,0.0678
618.743,0.0707
619.091,0.0736
619.438,0.0767
619.786,0.0798
620.134,0.0831
620.481,0.0862
620.829,0.09
621.176,0.0938
621.523,0.0977
621.871,0.1018
622.218,0.1061
622.565,0.1104
622.912,0.1146
623.259,0.1193
623.607,0.1238
623.954,0.1285
624.301,0.133
624.648,0.138
624.994,0.1428
625.341,0.1479
625.688,0.1525
626.035,0.1571
626.382,0.1615
626.728,0.1654
627.075,0.1693
627.421,0.1725
627.768,0.1749
628.114,0.1766
628.461,0.1774
628.807,0.1772
629.154,0.1763
629.5,0.1744
629.846,0.1711
630.192,0.167
630.538,0.1619
630.884,0.1558
631.231,0.1488
631.577,0.1418
631.922,0.134
632.268,0.126
632.614,0.1183
632.96,0.1105
633.306,0.1028
633.651,0.0958
633.997,0.0888
634.343,0.0821
634.688,0.0759
635.034,0.0704
635.379,0.0649
635.725,0.0599
636.07,0.0555
636.415,0.0518
636.761,0.0479
637.106,0.0447
637.451,0.0418
637.796,0.039
638.141,0.0362
638.486,0.0338
638.831,0.0317
639.176,0.0297
639.521,0.0278
639.866,0.0261
640.211,0.0245
640.555,0.023
640.9,0.0216
641.245,0.0203
641.589,0.0192
641.934,0.018
642.278,0.0169
642.623,0.0159
642.967,0.0149
643.312,0.0139
643.656,0.0131
644,0.0123
644.344,0.0115
644.689,0.0106
645.033,0.0099
645.377,0.0093
645.721,0.0086
646.065,0.0082
646.409,0.0078
646.753,0.0074
647.096,0.0069
647.44,0.0066
647.784,0.0062
648.128,0.0058
648.471,0.0054
648.815,0.0051
649.158,0.0047
649.502,0.0043
649.845,0.0041
650.189,0.0039
650.532,0.0037
650.875,0.0035
651.218,0.0033
651.562,0.0031
651.905,0.0029
652.248,0.0028
652.591,0.0025
652.934,0.0025
653.277,0.0024
653.62,0.0022
653.963,0.0021
654.305,0.0019
654.648,0.0019
654.991,0.0019
655.334,0.0019
655.676,0.0018
656.019,0.0018
656.361,0.0017
656.704,0.0015
657.046,0.0014
657.389,0.0013
657.731,0.0013
658.073,0.0014
658.415,0.0014
658.757,0.0014
659.1,0.0013
659.442,0.0012
659.784,0.0011
660.126,0.0011
660.468,0.0012
660.809,0.0011
661.151,0.0011
661.493,0.0011
661.835,0.001
662.177,0.0009
662.518,0.0009
662.86,0.001
663.201,0.0008
663.543,0.0007
663.884,0.0008
664.226,0.0008
664.567,0.0008
664.908,0.0009
665.249,0.0009
665.591,0.0008
665.932,0.0007
666.273,0.0006
666.614,0.0007
666.955,0.0008
667.296,0.0008
667.637,0.0008
667.978,0.0007
668.318,0.0004
668.659,0.0005
669,0.0004
669.341,0.0005
669.681,0.0005
670.022,0.0006
670.362,0.0004
670.703,0.0004
671.043,0.0004
671.383,0.0003
671.724,0.0003
672.064,0.0003
672.404,0.0002
672.744,0.0003
673.085,0.0003
673.425,0.0004
673.765,0.0005
674.105,0.0005
674.444,0.0005
674.784,0.0005
675.124,0.0005
675.464,0.0004
675.804,0.0005
676.143,0.0004
676.483,0.0004
676.823,0.0003
677.162,0.0003
677.501,0.0003
677.841,0.0004
678.18,0.0004
678.52,0.0004
678.859,0.0004
679.198,0.0003
679.537,0.0003
679.876,0.0003
680.215,0.0003
680.555,0.0004
680.894,0.0003
681.232,0.0004
681.571,0.0003
681.91,0.0004
682.249,0.0003
682.588,0.0003
682.926,0.0003
683.265,0.0003
683.604,0.0002
683.942,0.0002
684.281,0.0004
684.619,0.0003
684.957,0.0004
685.296,0.0004
685.634,0.0004
685.972,0.0004
686.31,0.0002
686.649,0.0003
686.987,0.0003
687.325,0.0004
687.663,0.0004
688.001,0.0005
688.338,0.0003
688.676,0.0003
689.014,0.0002
689.352,0.0003
689.69,0.0003
690.027,0.0003
690.365,0.0002
690.702,0.0002
691.04,0.0003
691.377,0.0004
691.715,0.0004
692.052,0.0004
692.389,0.0005
692.726,0.0003
693.064,0
693.401,0
693.738,0.0001
694.075,0.0002
694.412,0.0003
694.749,0.0005
695.086,0.0003
695.423,0.0004
695.759,0.0002
696.096,0.0002
696.433,0.0002
696.769,0.0002
697.106,0.0002
697.443,0.0002
697.779,0.0002
698.116,0.0001
698.452,0.0001
698.788,0.0001
699.125,0.0001
699.461,0.0003
699.797,0.0005
700.133,0.0004
700.469,0.0004
700.805,0.0003
701.141,0
701.477,0
701.813,0.0001
702.149,0.0001
702.485,0.0003
702.82,0.0005
703.156,0.0005
703.492,0.0004
703.827,0.0004
704.163,0.0002
704.498,0.0001
704.834,0.0002
705.169,0.0003
705.505,0.0004
705.84,0.0005
706.175,0.0006
706.51,0.0005
706.845,0.0005
707.18,0.0005
707.515,0.0003
707.85,0.0002
708.185,0.0003
708.52,0.0003
708.855,0.0004
709.19,0.0004
709.525,0.0004
709.859,0.0004
710.194,0.0004
710.529,0.0004
710.863,0.0003
711.198,0.0003
711.532,0.0002
711.866,0
712.201,0
712.535,0.0001
712.869,0
713.203,-0.0001
713.537,0
713.872,-0.0001
714.206,-0.0002
714.54,-0.0002
714.873,-0.0001
715.207,0
715.541,0
715.875,0
716.209,0.0001
716.542,0
716.876,0
717.21,0
717.543,0.0001
717.877,-0.0001
718.21,0.0002
718.543,0
718.877,0.0001
719.21,0.0001
719.543,0.0002
719.876,0.0001
720.209,0.0002
720.542,0
720.875,0.0002
721.208,0.0003
721.541,0.0002
721.874,0.0002
722.207,0.0003
722.54,0
722.872,-0.0001
723.205,0
723.538,0.0003
723.87,0.0002
724.203,0.0006
724.535,0.0007
724.868,0.0007
725.2,0.0006
725.532,0.0006
725.865,0.0005
726.197,0.0003
726.529,0.0003
726.861,0.0003
727.193,0.0004
727.525,0.0007
727.857,0.0008
728.189,0.0006
728.521,0.0007
728.853,0.0005
729.184,0.0003
729.516,0.0004
729.848,0.0005
730.179,0.0004
730.511,0.0002
730.842,0.0003
731.174,0.0001
731.505,0
731.836,0.0001
732.168,0.0003
732.499,0.0003
732.83,0.0003
733.161,0.0004
733.492,0.0004
733.823,0.0003
734.154,-0.0001
734.485,0
734.816,0
735.147,0
735.478,-0.0002
735.808,0.0002
736.139,0.0003
736.47,0.0003
736.8,0.0004
737.131,0.0006
737.461,0.0005
737.792,0.0003
738.122,0.0004
738.452,0.0004
738.782,0.0005
739.113,0.0005
739.443,0.0008
739.773,0.0007
740.103,0.0005
740.433,0.0006
740.763,0.001
741.093,0.0009
741.423,0.0009
741.752,0.001
742.082,0.0006
742.412,0.0003
742.742,0.0003
743.071,0.0001
743.401,0.0005
743.73,0.0006
744.06,0.0007
744.389,0.0006
744.718,0.0008
745.048,0.0004
745.377,0.0003
745.706,0.0004
746.035,0.0004
746.364,0.0003
746.693,0.0004
747.022,0.0003
747.351,0.0002
747.68,0.0002
748.009,0.0003
748.338,0.0004
748.666,0.0005
748.995,0.0006
749.323,0.0004
749.652,0.0002
749.981,0.0002
750.309,0.0002
750.637,-0.0001
750.966,0.0001
751.294,0.0001
751.622,0
751.95,-0.0001
752.279,-0.0001
752.607,0
752.935,-0.0002
753.263,0
753.591,0.0001
753.919,0.0002
754.246,0.0002
754.574,0.0004
754.902,0.0003
755.23,0.0003
755.557,0.0004
755.885,0.0004
756.212,0.0007
756.54,0.0007
756.867,0.0007
757.195,0.0006
757.522,0.0004
757.849,0.0002
758.176,0.0004
758.503,0.0002
758.831,0.0001
759.158,0.0002
759.485,0.0002
759.812,0.0001
760.138,0.0002
760.465,0.0003
760.792,0.0005
761.119,0.0007
761.446,0.0007
761.772,0.001
762.099,0.0012
762.425,0.0008
762.752,0.0004
763.078,0.0003
763.405,0.0003
763.731,0.0002
764.057,0.0003
764.383,0.0005
764.71,0.0004
765.036,0.0002
765.362,0.0001
765.688,0.0003
766.014,0.0003
766.34,0.0004
766.665,0.0002
766.991,0.0002
767.317,0.0003
767.643,0.0003
767.968,0.0006
768.294,0.0009
768.619,0.0012
768.945,0.0008
769.27,0.0006
769.596,0.0005
769.921,0.0004
770.246,0.0001
770.572,0.0004
770.897,0.0006
771.222,0.0004
771.547,0.0005
771.872,0.0003
772.197,0.0003
772.522,0.0005
772.847,0.0007
773.171,0.0006
773.496,0.001
773.821,0.0009
774.146,0.0007
774.47,0.0005
774.795,0.0001
775.119,-0.0005
775.444,-0.0005
775.768,-0.0004
776.092,-0.0004
776.417,0
776.741,0.0002
777.065,0
777.389,0.0002
777.713,0.0004
778.037,0.0005
778.361,0.0006
778.685,0.0008
779.009,0.0005
779.333,0.0005
779.657,0.0004
779.98,0.0005
780.304,0.0005
780.627,0.0005
780.951,0.0003
781.274,0.0006
781.598,0.0008
781.921,0.0005
782.245,0.0005
782.568,0.0005
782.891,0.0001
783.214,-0.0001
783.537,0.0001
783.861,0.0002
784.184,0
784.506,0.0002
784.829,0.0001
785.152,0.0001
785.475,-0.0001
785.798,0.0001
786.12,0.0002
786.443,0.0007
786.766,0.001
787.088,0.0011
787.411,0.0013
787.733,0.0013
788.056,0.0013
788.378,0.0011
788.7,0.001
789.022,0.0006
789.345,0.0002
789.667,-0.0006
